#Wavelength     Normalized Flux
#[Angstrom]       [Counts]
3650.00           0.610363
3652.00           0.571731
3654.00           0.539539
3656.00           0.427267
3658.00           0.376161
3660.00           0.399098
3662.00           0.495676
3664.00           0.546782
3666.00           0.490043
3668.00           0.451411
3670.00           0.357650
3672.00           0.307752
3674.00           0.263889
3676.00           0.293667
3678.00           0.385014
3680.00           0.464691
3682.00           0.492457
3684.00           0.457850
3686.00           0.389441
3688.00           0.380588
3690.00           0.437729
3692.00           0.544368
3694.00           0.582999
3696.00           0.540746
3698.00           0.507346
3700.00           0.514187
3702.00           0.519418
3704.00           0.490847
3706.00           0.494872
3708.00           0.549197
3710.00           0.644970
3712.00           0.692856
3714.00           0.737121
3716.00           0.838528
3718.00           1.067498
3720.00           1.423227
3722.00           2.042534
3724.00           2.839302
3726.00           3.227224
3728.00           2.817572
3730.00           1.846159
3732.00           1.009954
3734.00           0.645775
3736.00           0.552818
3738.00           0.537527
3740.00           0.553221
3742.00           0.560062
3744.00           0.582596
3746.00           0.543161
3748.00           0.548392
3750.00           0.545172
3752.00           0.569317
3754.00           0.552818
3756.00           0.570927
3758.00           0.591449
3760.00           0.605534
3762.00           0.563683
3764.00           0.556842
3766.00           0.531491
3768.00           0.551209
3770.00           0.536722
3772.00           0.559257
3774.00           0.600705
3776.00           0.626057
3778.00           0.625252
3780.00           0.615996
3782.00           0.582194
3784.00           0.570524
3786.00           0.547587
3788.00           0.539136
3790.00           0.514590
3792.00           0.537124
3794.00           0.589035
3796.00           0.588230
3798.00           0.587023
3800.00           0.576560
3802.00           0.625654
3804.00           0.618008
3806.00           0.616801
3808.00           0.611167
3810.00           0.604326
3812.00           0.615192
3814.00           0.601510
3816.00           0.598290
3818.00           0.543965
3820.00           0.549599
3822.00           0.562476
3824.00           0.578975
3826.00           0.574951
3828.00           0.574146
3830.00           0.585413
3832.00           0.577365
3834.00           0.594266
3836.00           0.587023
3838.00           0.597888
3840.00           0.628471
3842.00           0.671126
3844.00           0.694466
3846.00           0.686015
3848.00           0.669517
3850.00           0.649799
3852.00           0.652616
3854.00           0.665493
3856.00           0.702917
3858.00           0.718208
3860.00           0.786215
3862.00           0.937521
3864.00           1.152809
3866.00           1.311358
3868.00           1.215182
3870.00           0.931082
3872.00           0.642555
3874.00           0.559659
3876.00           0.585413
3878.00           0.606339
3880.00           0.596278
3882.00           0.590645
3884.00           0.681187
3886.00           0.735512
3888.00           0.733902
3890.00           0.620020
3892.00           0.548794
3894.00           0.549599
3896.00           0.576963
3898.00           0.604326
3900.00           0.618411
3902.00           0.666700
3904.00           0.694466
3906.00           0.690844
3908.00           0.677967
3910.00           0.679979
3912.00           0.668310
3914.00           0.661469
3916.00           0.651811
3918.00           0.667907
3920.00           0.666700
3922.00           0.674748
3924.00           0.656640
3926.00           0.609558
3928.00           0.564890
3930.00           0.554830
3932.00           0.587023
3934.00           0.597486
3936.00           0.630483
3938.00           0.641348
3940.00           0.641348
3942.00           0.663481
3944.00           0.681991
3946.00           0.685613
3948.00           0.659054
3950.00           0.629678
3952.00           0.662676
3954.00           0.664285
3956.00           0.675553
3958.00           0.680784
3960.00           0.704124
3962.00           0.755632
3964.00           0.838126
3966.00           0.910157
3968.00           0.903316
3970.00           0.786617
3972.00           0.671931
3974.00           0.619216
3976.00           0.639336
3978.00           0.651811
3980.00           0.673138
3982.00           0.700905
3984.00           0.724647
3986.00           0.726256
3988.00           0.716196
3990.00           0.722232
3992.00           0.718208
3994.00           0.706136
3996.00           0.691649
3998.00           0.669517
4000.00           0.645372
4002.00           0.656237
4004.00           0.695673
4006.00           0.731890
4008.00           0.714989
4010.00           0.702112
4012.00           0.731085
4014.00           0.754022
4016.00           0.760058
4018.00           0.724647
4020.00           0.721830
4022.00           0.722232
4024.00           0.710965
4026.00           0.710965
4028.00           0.700502
4030.00           0.686418
4032.00           0.674346
4034.00           0.660664
4036.00           0.692454
4038.00           0.721830
4040.00           0.760863
4042.00           0.768107
4044.00           0.760461
4046.00           0.762473
4048.00           0.770924
4050.00           0.765290
4052.00           0.732292
4054.00           0.719013
4056.00           0.731085
4058.00           0.770924
4060.00           0.789837
4062.00           0.785008
4064.00           0.799092
4066.00           0.793056
4068.00           0.788227
4070.00           0.778972
4072.00           0.771728
4074.00           0.790642
4076.00           0.781789
4078.00           0.786617
4080.00           0.743962
4082.00           0.704124
4084.00           0.698893
4086.00           0.703721
4088.00           0.704929
4090.00           0.688832
4092.00           0.719818
4094.00           0.781386
4096.00           0.905730
4098.00           1.075547
4100.00           1.133091
4102.00           0.982590
4104.00           0.765692
4106.00           0.646177
4108.00           0.662676
4110.00           0.669919
4112.00           0.677162
4114.00           0.664285
4116.00           0.661871
4118.00           0.650201
4120.00           0.668712
4122.00           0.687223
4124.00           0.714989
4126.00           0.731085
4128.00           0.757644
4130.00           0.756035
4132.00           0.754022
4134.00           0.741145
4136.00           0.755632
4138.00           0.751206
4140.00           0.729073
4142.00           0.716196
4144.00           0.731890
4146.00           0.736719
4148.00           0.724244
4150.00           0.721830
4152.00           0.757242
4154.00           0.797080
4156.00           0.820420
4158.00           0.808750
4160.00           0.791446
4162.00           0.788227
4164.00           0.806738
4166.00           0.817200
4168.00           0.798690
4170.00           0.772936
4172.00           0.772131
4174.00           0.762473
4176.00           0.758449
4178.00           0.747986
4180.00           0.732695
4182.00           0.747584
4184.00           0.776557
4186.00           0.811969
4188.00           0.827663
4190.00           0.818408
4192.00           0.795873
4194.00           0.778167
4196.00           0.752815
4198.00           0.749596
4200.00           0.765692
4202.00           0.807140
4204.00           0.852210
4206.00           0.854625
4208.00           0.832492
4210.00           0.831285
4212.00           0.834906
4214.00           0.843759
4216.00           0.833297
4218.00           0.819615
4220.00           0.791446
4222.00           0.788629
4224.00           0.787020
4226.00           0.810762
4228.00           0.802311
4230.00           0.807543
4232.00           0.824041
4234.00           0.802714
4236.00           0.789434
4238.00           0.781386
4240.00           0.804323
4242.00           0.788629
4244.00           0.758851
4246.00           0.754022
4248.00           0.791849
4250.00           0.773338
4252.00           0.795068
4254.00           0.804726
4256.00           0.844967
4258.00           0.818810
4260.00           0.788629
4262.00           0.769716
4264.00           0.776960
4266.00           0.787020
4268.00           0.796678
4270.00           0.813981
4272.00           0.807945
4274.00           0.787422
4276.00           0.768107
4278.00           0.735512
4280.00           0.741145
4282.00           0.737926
4284.00           0.795873
4286.00           0.820822
4288.00           0.805531
4290.00           0.773740
4292.00           0.760863
4294.00           0.766497
4296.00           0.769716
4298.00           0.757644
4300.00           0.763680
4302.00           0.762875
4304.00           0.785008
4306.00           0.783398
4308.00           0.772533
4310.00           0.766095
4312.00           0.776557
4314.00           0.772936
4316.00           0.767704
4318.00           0.762473
4320.00           0.762071
4322.00           0.746377
4324.00           0.769716
4326.00           0.803519
4328.00           0.822029
4330.00           0.807945
4332.00           0.889232
4334.00           1.240534
4336.00           1.771311
4338.00           2.002695
4340.00           1.679159
4342.00           1.136310
4344.00           0.801909
4346.00           0.744365
4348.00           0.726256
4350.00           0.688430
4352.00           0.719818
4354.00           0.792654
4356.00           0.932289
4358.00           1.029270
4360.00           1.032489
4362.00           0.966092
4364.00           0.888024
4366.00           0.849796
4368.00           0.824041
4370.00           0.809152
4372.00           0.793056
4374.00           0.789032
4376.00           0.793458
4378.00           0.796275
4380.00           0.784605
4382.00           0.761266
4384.00           0.744767
4386.00           0.743962
4388.00           0.762875
4390.00           0.756437
4392.00           0.750803
4394.00           0.746377
4396.00           0.772936
4398.00           0.781789
4400.00           0.785813
4402.00           0.793056
4404.00           0.803116
4406.00           0.809152
4408.00           0.806335
4410.00           0.818810
4412.00           0.810360
4414.00           0.813176
4416.00           0.817200
4418.00           0.826053
4420.00           0.829273
4422.00           0.822834
4424.00           0.823639
4426.00           0.807945
4428.00           0.780581
4430.00           0.771326
4432.00           0.793458
4434.00           0.842955
4436.00           0.855832
4438.00           0.858649
4440.00           0.847784
4442.00           0.863478
4444.00           0.862673
4446.00           0.842552
4448.00           0.824041
4450.00           0.826858
4452.00           0.854222
4454.00           0.862673
4456.00           0.846576
4458.00           0.837321
4460.00           0.838528
4462.00           0.831687
4464.00           0.846174
4466.00           0.878367
4468.00           0.914986
4470.00           0.919815
4472.00           0.887220
4474.00           0.853820
4476.00           0.836114
4478.00           0.844564
4480.00           0.850600
4482.00           0.846576
4484.00           0.864685
4486.00           0.897682
4488.00           0.905730
4490.00           0.886817
4492.00           0.873135
4494.00           0.847784
4496.00           0.845369
4498.00           0.823639
4500.00           0.843759
4502.00           0.857039
4504.00           0.880781
4506.00           0.883196
4508.00           0.880781
4510.00           0.884805
4512.00           0.894865
4514.00           0.894061
4516.00           0.871526
4518.00           0.866294
4520.00           0.844564
4522.00           0.848588
4524.00           0.826456
4526.00           0.832492
4528.00           0.827663
4530.00           0.837321
4532.00           0.831285
4534.00           0.834102
4536.00           0.855429
4538.00           0.873135
4540.00           0.897280
4542.00           0.884403
4544.00           0.896475
4546.00           0.876757
4548.00           0.876355
4550.00           0.863075
4552.00           0.864685
4554.00           0.869916
4556.00           0.865892
4558.00           0.884403
4560.00           0.897682
4562.00           0.902511
4564.00           0.906133
4566.00           0.909352
4568.00           0.916595
4570.00           0.904121
4572.00           0.896073
4574.00           0.884403
4576.00           0.894061
4578.00           0.889634
4580.00           0.914583
4582.00           0.921022
4584.00           0.920217
4586.00           0.904523
4588.00           0.898487
4590.00           0.908950
4592.00           0.906535
4594.00           0.899292
4596.00           0.896877
4598.00           0.899694
4600.00           0.893256
4602.00           0.900097
4604.00           0.919010
4606.00           0.941142
4608.00           0.942349
4610.00           0.939935
4612.00           0.943557
4614.00           0.941947
4616.00           0.920620
4618.00           0.891244
4620.00           0.890439
4622.00           0.895670
4624.00           0.912169
4626.00           0.920217
4628.00           0.928668
4630.00           0.934704
4632.00           0.939130
4634.00           0.955227
4636.00           0.999894
4638.00           1.019612
4640.00           1.011966
4642.00           0.970116
4644.00           0.930277
4646.00           0.904121
4648.00           0.891646
4650.00           0.909755
4652.00           0.946374
4654.00           0.972128
4656.00           0.979773
4658.00           0.973737
4660.00           0.953617
4662.00           0.929472
4664.00           0.919412
4666.00           0.915791
4668.00           0.925851
4670.00           0.924241
4672.00           0.936313
4674.00           0.908950
4676.00           0.898085
4678.00           0.892853
4680.00           0.935508
4682.00           0.985810
4684.00           0.999491
4686.00           0.972932
4688.00           0.927863
4690.00           0.915388
4692.00           0.912974
4694.00           0.915791
4696.00           0.908950
4698.00           0.912571
4700.00           0.916193
4702.00           0.926253
4704.00           0.930277
4706.00           0.952007
4708.00           0.970116
4710.00           0.988626
4712.00           0.966092
4714.00           0.939935
4716.00           0.932692
4718.00           0.906535
4720.00           0.894865
4722.00           0.893256
4724.00           0.914181
4726.00           0.902109
4728.00           0.894463
4730.00           0.912169
4732.00           0.943557
4734.00           0.951605
4736.00           0.952410
4738.00           0.949190
4740.00           0.949593
4742.00           0.950800
4744.00           0.952812
4746.00           0.936313
4748.00           0.918205
4750.00           0.924643
4752.00           0.922229
4754.00           0.923034
4756.00           0.912974
4758.00           0.903718
4760.00           0.900901
4762.00           0.919412
4764.00           0.943959
4766.00           0.937118
4768.00           0.917400
4770.00           0.904121
4772.00           0.916595
4774.00           0.933496
4776.00           0.952410
4778.00           0.945971
4780.00           0.919412
4782.00           0.906133
4784.00           0.922229
4786.00           0.940740
4788.00           0.947178
4790.00           0.942349
4792.00           0.945569
4794.00           0.951605
4796.00           0.953214
4798.00           0.945166
4800.00           0.934301
4802.00           0.933496
4804.00           0.930680
4806.00           0.927058
4808.00           0.914181
4810.00           0.916595
4812.00           0.941947
4814.00           0.952410
4816.00           0.963677
4818.00           0.937521
4820.00           0.930680
4822.00           0.904121
4824.00           0.921827
4826.00           0.932692
4828.00           0.947581
4830.00           0.940338
4832.00           0.941545
4834.00           0.944362
4836.00           0.925851
4838.00           0.918205
4840.00           0.912974
4842.00           0.926656
4844.00           0.927863
4846.00           0.919010
4848.00           0.901304
4850.00           0.938728
4852.00           1.046573
4854.00           1.472724
4856.00           2.889603
4858.00           4.863014
4860.00           5.615920
4862.00           4.309300
4864.00           2.203497
4866.00           1.007540
4868.00           0.816798
4870.00           0.807140
4872.00           0.829273
4874.00           0.847784
4876.00           0.895670
4878.00           0.889634
4880.00           0.903316
4882.00           0.898487
4884.00           0.898889
4886.00           0.910559
4888.00           0.904121
4890.00           0.920217
4892.00           0.932692
4894.00           0.953617
4896.00           0.969713
4898.00           0.956836
4900.00           0.932289
4902.00           0.921827
4904.00           0.929070
4906.00           0.945569
4908.00           0.939533
4910.00           0.941142
4912.00           0.929875
4914.00           0.921827
4916.00           0.909755
4918.00           0.912169
4920.00           0.921827
4922.00           0.919815
4924.00           0.939130
4926.00           0.962067
4928.00           0.974945
4930.00           0.966896
4932.00           0.933496
4934.00           0.936313
4936.00           0.958044
4938.00           0.992248
4940.00           1.007137
4942.00           0.999894
4944.00           1.008747
4946.00           1.039330
4948.00           1.091241
4950.00           1.230876
4952.00           2.154806
4954.00           4.883939
4956.00           8.282680
4958.00           9.274616
4960.00           6.780489
4962.00           3.218773
4964.00           1.260654
4966.00           0.952007
4968.00           0.945569
4970.00           0.960860
4972.00           0.969311
4974.00           0.980578
4976.00           0.964884
4978.00           0.963275
4980.00           0.968104
4982.00           0.989431
4984.00           1.007540
4986.00           1.005125
4988.00           0.986212
4990.00           0.995870
4992.00           1.028062
4994.00           1.089229
4996.00           1.198684
4998.00           1.580971
5000.00           4.162421
5002.00          12.487040
5004.00          23.070380
5006.00          26.634510
5008.00          19.283320
5010.00           8.327347
5012.00           2.158830
5014.00           1.073937
5016.00           1.026453
5018.00           0.978969
5020.00           0.952812
5022.00           0.956031
5024.00           0.967299
5026.00           0.979773
5028.00           0.985407
5030.00           0.969713
5032.00           0.956031
5034.00           0.936716
5036.00           0.935508
5038.00           0.952812
5040.00           0.958848
5042.00           0.954422
5044.00           0.943154
5046.00           0.948788
5048.00           0.955227
5050.00           0.957641
5052.00           0.964080
5054.00           0.968104
5056.00           0.971725
5058.00           0.963677
5060.00           0.957239
5062.00           0.937118
5064.00           0.925448
5066.00           0.932289
5068.00           0.943557
5070.00           0.951605
5072.00           0.949995
5074.00           0.947178
5076.00           0.933899
5078.00           0.922632
5080.00           0.912974
5082.00           0.929070
5084.00           0.934301
5086.00           0.931082
5088.00           0.943557
5090.00           0.969713
5092.00           0.989431
5094.00           0.974140
5096.00           0.939533
5098.00           0.908950
5100.00           0.894463
5102.00           0.901304
5104.00           0.915791
5106.00           0.932692
5108.00           0.939130
5110.00           0.942349
5112.00           0.935508
5114.00           0.925851
5116.00           0.931887
5118.00           0.923436
5120.00           0.944362
5122.00           0.971725
5124.00           1.009552
