#Wavelength     Normalized Flux
#[Angstrom]       [Counts]
3650.00           0.584908
3652.00           0.597509
3654.00           0.603421
3656.00           0.605306
3658.00           0.604604
3660.00           0.614729
3662.00           0.630619
3664.00           0.632023
3666.00           0.618905
3668.00           0.590820
3670.00           0.521015
3672.00           0.517135
3674.00           0.552906
3676.00           0.628513
3678.00           0.674815
3680.00           0.687823
3682.00           0.663212
3684.00           0.617020
3686.00           0.604419
3688.00           0.607634
3690.00           0.604936
3692.00           0.582801
3694.00           0.589712
3696.00           0.618018
3698.00           0.659812
3700.00           0.657004
3702.00           0.640707
3704.00           0.604826
3706.00           0.608706
3708.00           0.584908
3710.00           0.574117
3712.00           0.578736
3714.00           0.598100
3716.00           0.607634
3718.00           0.584501
3720.00           0.576334
3722.00           0.576815
3724.00           0.589601
3726.00           0.595513
3728.00           0.599135
3730.00           0.610627
3732.00           0.624707
3734.00           0.622009
3736.00           0.617501
3738.00           0.655821
3740.00           0.693920
3742.00           0.753526
3744.00           0.787819
3746.00           0.871333
3748.00           1.082522
3750.00           1.383803
3752.00           1.653932
3754.00           1.635714
3756.00           1.347921
3758.00           0.993612
3760.00           0.744916
3762.00           0.644513
3764.00           0.607117
3766.00           0.593222
3768.00           0.578219
3770.00           0.594331
3772.00           0.605823
3774.00           0.629510
3776.00           0.634425
3778.00           0.649909
3780.00           0.688636
3782.00           0.717534
3784.00           0.733313
3786.00           0.739003
3788.00           0.742810
3790.00           0.727326
3792.00           0.683130
3794.00           0.643405
3796.00           0.660034
3798.00           0.686419
3800.00           0.712027
3802.00           0.716720
3804.00           0.750422
3806.00           0.793325
3808.00           0.826916
3810.00           0.824809
3812.00           0.794212
3814.00           0.774109
3816.00           0.764834
3818.00           0.728804
3820.00           0.642223
3822.00           0.571235
3824.00           0.549728
3826.00           0.591522
3828.00           0.649207
3830.00           0.727511
3832.00           0.820707
3834.00           0.847720
3836.00           0.851120
3838.00           0.818305
3840.00           0.807035
3842.00           0.763836
3844.00           0.719307
3846.00           0.685236
3848.00           0.685421
3850.00           0.670935
3852.00           0.654824
3854.00           0.611034
3856.00           0.626924
3858.00           0.610406
3860.00           0.593333
3862.00           0.561036
3864.00           0.575928
3866.00           0.621824
3868.00           0.653124
3870.00           0.681430
3872.00           0.732832
3874.00           0.776215
3876.00           0.817936
3878.00           0.828320
3880.00           0.816310
3882.00           0.812504
3884.00           0.791034
3886.00           0.799422
3888.00           0.796909
3890.00           0.798018
3892.00           0.802933
3894.00           0.794618
3896.00           0.809215
3898.00           0.805224
3900.00           0.796503
3902.00           0.746024
3904.00           0.707815
3906.00           0.695805
3908.00           0.709404
3910.00           0.708628
3912.00           0.689412
3914.00           0.710919
3916.00           0.724333
3918.00           0.770636
3920.00           0.768603
3922.00           0.774109
3924.00           0.771818
3926.00           0.782719
3928.00           0.797020
3930.00           0.791403
3932.00           0.789112
3934.00           0.803524
3936.00           0.815903
3938.00           0.819303
3940.00           0.830315
3942.00           0.851822
3944.00           0.885117
3946.00           0.883122
3948.00           0.894429
3950.00           0.871001
3952.00           0.859730
3954.00           0.794323
3956.00           0.733904
3958.00           0.663101
3960.00           0.643220
3962.00           0.651313
3964.00           0.684904
3966.00           0.736528
3968.00           0.770118
3970.00           0.791108
3972.00           0.792401
3974.00           0.794618
3976.00           0.818121
3978.00           0.831609
3980.00           0.840810
3982.00           0.830611
3984.00           0.813612
3986.00           0.783126
3988.00           0.712027
3990.00           0.657706
3992.00           0.606932
3994.00           0.583134
3996.00           0.578330
3998.00           0.614914
4000.00           0.646805
4002.00           0.675924
4004.00           0.700424
4006.00           0.761915
4008.00           0.824809
4010.00           0.879611
4012.00           0.936519
4014.00           0.955624
4016.00           0.959615
4018.00           0.946903
4020.00           0.951227
4022.00           0.962424
4024.00           0.982526
4026.00           1.001520
4028.00           1.014417
4030.00           0.995423
4032.00           0.965712
4034.00           0.948936
4036.00           0.952631
4038.00           0.959615
4040.00           0.961204
4042.00           0.958100
4044.00           0.972623
4046.00           1.053218
4048.00           1.136400
4050.00           1.136326
4052.00           1.079122
4054.00           1.006324
4056.00           1.003811
4058.00           0.981307
4060.00           0.977611
4062.00           0.973510
4064.00           0.990804
4066.00           0.999118
4068.00           1.008024
4070.00           0.991026
4072.00           0.972032
4074.00           0.957435
4076.00           0.966525
4078.00           1.010611
4080.00           1.030233
4082.00           1.029900
4084.00           1.021512
4086.00           1.021106
4088.00           1.037328
4090.00           1.022621
4092.00           0.996310
4094.00           0.976429
4096.00           0.982120
4098.00           0.989806
4100.00           0.978424
4102.00           0.954405
4104.00           0.945536
4106.00           0.936224
4108.00           0.925914
4110.00           0.914717
4112.00           0.912721
4114.00           0.917821
4116.00           0.937702
4118.00           0.949305
4120.00           0.952705
4122.00           0.925914
4124.00           0.897903
4126.00           0.855702
4128.00           0.844505
4130.00           0.865606
4132.00           0.900933
4134.00           0.898420
4136.00           0.877616
4138.00           0.877320
4140.00           0.900933
4142.00           0.935817
4144.00           0.952631
4146.00           0.983709
4148.00           0.995312
4150.00           0.983228
4152.00           0.966119
4154.00           0.954922
4156.00           0.955218
4158.00           0.953333
4160.00           0.953407
4162.00           0.978609
4164.00           1.011535
4166.00           1.035702
4168.00           1.024025
4170.00           1.010722
4172.00           1.009909
4174.00           1.032118
4176.00           1.041134
4178.00           1.034224
4180.00           1.024431
4182.00           1.012126
4184.00           1.003109
4186.00           0.996532
4188.00           1.008800
4190.00           1.030011
4192.00           1.060535
4194.00           1.070401
4196.00           1.061126
4198.00           1.021919
4200.00           0.979422
4202.00           0.962128
4204.00           0.981011
4206.00           1.000929
4208.00           1.009022
4210.00           1.006213
4212.00           0.996827
4214.00           0.994610
4216.00           0.997234
4218.00           1.015710
4220.00           1.013124
4222.00           1.012532
4224.00           1.009317
4226.00           0.997418
4228.00           0.972734
4230.00           0.968114
4232.00           0.986813
4234.00           0.998601
4236.00           1.012606
4238.00           1.020108
4240.00           1.014232
4242.00           0.997012
4244.00           0.998231
4246.00           1.020736
4248.00           1.033005
4250.00           1.021106
4252.00           0.979903
4254.00           0.949120
4256.00           0.937406
4258.00           0.965010
4260.00           0.982231
4262.00           0.998305
4264.00           0.995830
4266.00           0.995312
4268.00           1.002814
4270.00           1.017817
4272.00           1.030011
4274.00           1.018408
4276.00           0.999229
4278.00           0.982009
4280.00           0.987404
4282.00           0.990213
4284.00           0.994314
4286.00           1.002112
4288.00           0.996716
4290.00           0.983302
4292.00           0.972401
4294.00           0.995608
4296.00           1.026316
4298.00           1.010204
4300.00           0.974507
4302.00           0.943836
4304.00           0.948529
4306.00           0.956511
4308.00           0.968225
4310.00           0.963902
4312.00           0.959504
4314.00           0.940325
4316.00           0.930828
4318.00           0.951818
4320.00           0.962313
4322.00           0.968706
4324.00           0.936815
4326.00           0.910837
4328.00           0.899825
4330.00           0.877209
4332.00           0.856922
4334.00           0.825031
4336.00           0.806628
4338.00           0.807515
4340.00           0.831128
4342.00           0.881311
4344.00           0.916934
4346.00           0.954626
4348.00           0.969334
4350.00           0.970406
4352.00           0.911908
4354.00           0.828431
4356.00           0.808402
4358.00           0.883602
4360.00           1.019406
4362.00           1.070512
4364.00           1.022916
4366.00           0.985519
4368.00           1.001114
4370.00           1.049227
4372.00           1.041430
4374.00           0.999008
4376.00           0.959837
4378.00           0.928205
4380.00           0.917119
4382.00           0.916934
4384.00           0.923327
4386.00           0.947310
4388.00           0.970516
4390.00           0.995201
4392.00           0.998527
4394.00           0.991912
4396.00           0.997012
4398.00           1.007802
4400.00           1.016819
4402.00           1.002001
4404.00           0.976022
4406.00           0.969519
4408.00           0.985224
4410.00           1.011017
4412.00           0.998934
4414.00           0.950635
4416.00           0.917008
4418.00           0.925729
4420.00           0.967301
4422.00           0.999525
4424.00           1.003331
4426.00           1.007507
4428.00           1.006620
4430.00           0.998934
4432.00           0.978609
4434.00           0.969703
4436.00           0.971921
4438.00           0.998712
4440.00           1.009724
4442.00           1.029900
4444.00           1.027535
4446.00           1.016634
4448.00           1.021623
4450.00           1.024210
4452.00           1.048525
4454.00           1.043906
4456.00           1.040321
4458.00           1.034815
4460.00           1.013419
4462.00           1.005105
4464.00           1.004920
4466.00           1.028016
4468.00           1.041134
4470.00           1.043130
4472.00           1.021327
4474.00           1.013419
4476.00           1.031009
4478.00           1.066928
4480.00           1.069330
4482.00           1.032820
4484.00           1.022214
4486.00           1.009613
4488.00           1.005511
4490.00           0.989104
4492.00           0.997603
4494.00           1.004107
4496.00           1.006509
4498.00           1.013013
4500.00           1.029309
4502.00           1.055916
4504.00           1.090430
4506.00           1.113711
4508.00           1.093830
4510.00           1.051814
4512.00           1.019406
4514.00           1.029716
4516.00           1.074208
4518.00           1.079825
4520.00           1.073727
4522.00           1.050927
4524.00           1.049227
4526.00           1.052331
4528.00           1.047527
4530.00           1.070808
4532.00           1.087917
4534.00           1.108316
4536.00           1.125018
4538.00           1.139135
4540.00           1.148632
4542.00           1.128307
4544.00           1.101701
4546.00           1.092130
4548.00           1.086107
4550.00           1.107429
4552.00           1.099114
4554.00           1.092610
4556.00           1.061126
4558.00           1.032302
4560.00           1.019332
4562.00           1.012717
4564.00           1.015526
4566.00           1.033818
4568.00           1.055324
4570.00           1.089913
4572.00           1.096934
4574.00           1.087215
4576.00           1.069736
4578.00           1.042021
4580.00           1.027905
4582.00           1.006029
4584.00           1.003811
4586.00           1.017817
4588.00           1.039102
4590.00           1.078014
4592.00           1.090430
4594.00           1.092610
4596.00           1.090615
4598.00           1.106727
4600.00           1.117110
4602.00           1.107207
4604.00           1.097636
4606.00           1.100408
4608.00           1.096010
4610.00           1.098634
4612.00           1.090837
4614.00           1.080231
4616.00           1.061717
4618.00           1.059500
4620.00           1.065006
4622.00           1.060313
4624.00           1.047010
4626.00           1.044608
4628.00           1.051518
4630.00           1.063232
4632.00           1.069736
4634.00           1.071104
4636.00           1.094421
4638.00           1.115817
4640.00           1.127014
4642.00           1.116926
4644.00           1.111235
4646.00           1.113415
4648.00           1.111604
4650.00           1.110311
4652.00           1.112011
4654.00           1.100518
4656.00           1.091908
4658.00           1.086217
4660.00           1.092721
4662.00           1.106505
4664.00           1.101110
4666.00           1.096823
4668.00           1.091613
4670.00           1.092832
4672.00           1.097119
4674.00           1.097932
4676.00           1.088324
4678.00           1.083224
4680.00           1.064304
4682.00           1.062309
4684.00           1.056027
4686.00           1.054105
4688.00           1.073210
4690.00           1.089432
4692.00           1.101627
4694.00           1.093017
4696.00           1.068110
4698.00           1.035407
4700.00           1.030713
4702.00           1.044608
4704.00           1.074318
4706.00           1.071621
4708.00           1.076536
4710.00           1.065819
4712.00           1.072027
4714.00           1.071732
4716.00           1.081931
4718.00           1.082633
4720.00           1.079012
4722.00           1.071214
4724.00           1.063011
4726.00           1.070808
4728.00           1.074910
4730.00           1.073801
4732.00           1.054216
4734.00           1.037513
4736.00           1.031120
4738.00           1.036404
4740.00           1.038732
4742.00           1.031600
4744.00           1.027720
4746.00           1.038104
4748.00           1.058207
4750.00           1.073506
4752.00           1.076203
4754.00           1.079714
4756.00           1.073616
4758.00           1.070032
4760.00           1.058022
4762.00           1.035924
4764.00           1.031305
4766.00           1.030529
4768.00           1.046530
4770.00           1.048710
4772.00           1.042502
4774.00           1.043610
4776.00           1.055435
4778.00           1.081414
4780.00           1.090911
4782.00           1.087104
4784.00           1.074725
4786.00           1.054733
4788.00           1.045421
4790.00           1.045014
4792.00           1.051518
4794.00           1.060720
4796.00           1.048931
4798.00           1.033411
4800.00           1.018001
4802.00           1.017817
4804.00           1.032413
4806.00           1.052627
4808.00           1.064119
4810.00           1.068221
4812.00           1.050225
4814.00           1.045014
4816.00           1.046530
4818.00           1.042908
4820.00           1.037513
4822.00           1.036626
4824.00           1.052220
4826.00           1.055324
4828.00           1.058022
4830.00           1.053625
4832.00           1.049634
4834.00           1.044904
4836.00           1.058207
4838.00           1.064304
4840.00           1.059722
4842.00           1.047712
4844.00           1.057911
4846.00           1.057024
4848.00           1.052701
4850.00           1.059426
4852.00           1.066115
4854.00           1.055103
4856.00           1.012532
4858.00           0.988328
4860.00           0.991026
4862.00           1.030011
4864.00           1.056729
4866.00           1.050114
4868.00           1.030307
4870.00           1.011424
4872.00           1.003516
4874.00           0.978018
4876.00           0.974914
4878.00           0.969703
4880.00           0.980605
4882.00           0.981307
4884.00           0.974914
4886.00           0.962534
4888.00           0.967819
4890.00           1.071030
4892.00           1.252619
4894.00           1.419426
4896.00           1.451206
4898.00           1.313111
4900.00           1.114006
4902.00           0.958913
4904.00           0.899714
4906.00           0.915308
4908.00           0.937813
4910.00           0.955107
4912.00           0.951227
4914.00           0.956031
4916.00           0.965010
4918.00           0.971218
4920.00           0.963310
4922.00           0.967523
4924.00           0.975136
4926.00           1.001631
4928.00           1.011128
4930.00           1.022103
4932.00           1.025614
4934.00           1.025429
4936.00           1.033928
4938.00           1.040137
4940.00           1.040137
4942.00           1.023803
4944.00           0.999525
4946.00           0.993834
4948.00           0.988032
4950.00           0.985335
4952.00           0.977020
4954.00           0.971921
4956.00           0.976133
4958.00           0.982009
4960.00           1.001003
4962.00           1.006915
4964.00           1.006102
4966.00           1.000929
4968.00           0.994019
4970.00           0.998231
4972.00           1.000412
4974.00           1.015304
4976.00           1.040728
4978.00           1.067704
4980.00           1.071214
4982.00           1.056433
4984.00           1.048525
4986.00           1.053107
4988.00           1.082300
4990.00           1.117923
4992.00           1.149408
4994.00           1.150812
4996.00           1.111124
4998.00           1.078236
5000.00           1.055620
5002.00           1.031933
5004.00           1.031600
5006.00           1.015415
5008.00           1.024025
5010.00           1.010130
5012.00           1.006915
5014.00           0.992504
5016.00           0.992910
5018.00           0.986222
5020.00           0.989621
5022.00           0.988808
5024.00           0.990804
5026.00           0.999008
5028.00           1.004514
5030.00           1.005807
5032.00           0.996421
5034.00           1.009724
5036.00           1.060904
5038.00           1.164928
5040.00           1.249921
5042.00           1.265035
5044.00           1.198112
5046.00           1.102218
5048.00           1.020330
5050.00           0.968004
5052.00           0.941730
5054.00           0.939919
5056.00           0.945314
5058.00           0.955624
5060.00           0.964013
5062.00           0.972623
5064.00           0.989030
5066.00           1.006620
5068.00           1.006435
5070.00           0.976614
5072.00           0.953111
5074.00           0.944501
5076.00           0.960613
5078.00           0.981011
5080.00           0.994019
5082.00           0.989732
5084.00           0.981418
5086.00           0.976429
5088.00           0.991136
5090.00           0.997123
5092.00           1.004218
5094.00           1.003109
5096.00           0.996716
5098.00           0.995903
5100.00           0.988032
5102.00           0.984522
5104.00           0.980605
5106.00           0.985409
5108.00           0.983820
5110.00           0.973029
5112.00           0.946534
5114.00           0.950820
5116.00           0.957213
5118.00           0.970406
5120.00           0.974027
5122.00           0.978129
5124.00           0.985002
