#Wavelength     Normalized Flux
#[Angstrom]       [Counts]
3650.00           1.052660
3652.00           0.915599
3654.00           0.885096
3656.00           0.830292
3658.00           0.804466
3660.00           0.739596
3662.00           0.795518
3664.00           0.848797
3666.00           0.873403
3668.00           0.931562
3670.00           0.958913
3672.00           0.960235
3674.00           0.952508
3676.00           0.988196
3678.00           0.971521
3680.00           0.935629
3682.00           0.841578
3684.00           0.812193
3686.00           0.837307
3688.00           0.943458
3690.00           1.022461
3692.00           0.986061
3694.00           1.014836
3696.00           1.120376
3698.00           1.235068
3700.00           1.148338
3702.00           1.064149
3704.00           0.926478
3706.00           0.942543
3708.00           0.912853
3710.00           0.902177
3712.00           0.887027
3714.00           0.837714
3716.00           0.752305
3718.00           0.762778
3720.00           0.835884
3722.00           1.032833
3724.00           1.068623
3726.00           1.192059
3728.00           1.913458
3730.00           3.747103
3732.00           6.031686
3734.00           7.148202
3736.00           6.105809
3738.00           3.904499
3740.00           2.062720
3742.00           1.373959
3744.00           1.280620
3746.00           1.182094
3748.00           1.093330
3750.00           0.968674
3752.00           1.013107
3754.00           0.975283
3756.00           0.962879
3758.00           1.021241
3760.00           1.147931
3762.00           1.223680
3764.00           1.216258
3766.00           1.119665
3768.00           1.098414
3770.00           1.096076
3772.00           1.112954
3774.00           1.186060
3776.00           1.220223
3778.00           1.255505
3780.00           1.205480
3782.00           1.161759
3784.00           1.188297
3786.00           1.317223
3788.00           1.382907
3790.00           1.366842
3792.00           1.291194
3794.00           1.322002
3796.00           1.301972
3798.00           1.221850
3800.00           1.095262
3802.00           1.086315
3804.00           1.065878
3806.00           1.052456
3808.00           1.037306
3810.00           1.099736
3812.00           1.277773
3814.00           1.427848
3816.00           1.509596
3818.00           1.417375
3820.00           1.318444
3822.00           1.336237
3824.00           1.396837
3826.00           1.424594
3828.00           1.411173
3830.00           1.363283
3832.00           1.378535
3834.00           1.259064
3836.00           1.085705
3838.00           0.993280
3840.00           0.997347
3842.00           1.097499
3844.00           1.107158
3846.00           1.103600
3848.00           1.157997
3850.00           1.196228
3852.00           1.186975
3854.00           1.175892
3856.00           1.245338
3858.00           1.353014
3860.00           1.467400
3862.00           1.471976
3864.00           1.493023
3866.00           1.428661
3868.00           1.476348
3870.00           1.614019
3872.00           1.824287
3874.00           1.961856
3876.00           1.919355
3878.00           1.762569
3880.00           1.580974
3882.00           1.470146
3884.00           1.441574
3886.00           1.376196
3888.00           1.255607
3890.00           1.166945
3892.00           1.184331
3894.00           1.239644
3896.00           1.253167
3898.00           1.227646
3900.00           1.259267
3902.00           1.319054
3904.00           1.333695
3906.00           1.318138
3908.00           1.284483
3910.00           1.306954
3912.00           1.378636
3914.00           1.436287
3916.00           1.483669
3918.00           1.453877
3920.00           1.505834
3922.00           1.526678
3924.00           1.524950
3926.00           1.460791
3928.00           1.433644
3930.00           1.404767
3932.00           1.402022
3934.00           1.377315
3936.00           1.375586
3938.00           1.324646
3940.00           1.281128
3942.00           1.282450
3944.00           1.304107
3946.00           1.361148
3948.00           1.456013
3950.00           1.478382
3952.00           1.488041
3954.00           1.389922
3956.00           1.371722
3958.00           1.365622
3960.00           1.404259
3962.00           1.345591
3964.00           1.237102
3966.00           1.196329
3968.00           1.203955
3970.00           1.171927
3972.00           1.167250
3974.00           1.244626
3976.00           1.336644
3978.00           1.296278
3980.00           1.218902
3982.00           1.184433
3984.00           1.211581
3986.00           1.265266
3988.00           1.301667
3990.00           1.349862
3992.00           1.347930
3994.00           1.417375
3996.00           1.481025
3998.00           1.497700
4000.00           1.496785
4002.00           1.550369
4004.00           1.642692
4006.00           1.642692
4008.00           1.589616
4010.00           1.493430
4012.00           1.513460
4014.00           1.543455
4016.00           1.593582
4018.00           1.542947
4020.00           1.445438
4022.00           1.452454
4024.00           1.506241
4026.00           1.572230
4028.00           1.608732
4030.00           1.586668
4032.00           1.619306
4034.00           1.628660
4036.00           1.660282
4038.00           1.609342
4040.00           1.586566
4042.00           1.640557
4044.00           1.717730
4046.00           1.762264
4048.00           1.685193
4050.00           1.639438
4052.00           1.556673
4054.00           1.572535
4056.00           1.580974
4058.00           1.581279
4060.00           1.536541
4062.00           1.513867
4064.00           1.554945
4066.00           1.562875
4068.00           1.507055
4070.00           1.492820
4072.00           1.476958
4074.00           1.471366
4076.00           1.470146
4078.00           1.510105
4080.00           1.510715
4082.00           1.484584
4084.00           1.498107
4086.00           1.518544
4088.00           1.482144
4090.00           1.366537
4092.00           1.377315
4094.00           1.414833
4096.00           1.435982
4098.00           1.393176
4100.00           1.284382
4102.00           1.192466
4104.00           1.209649
4106.00           1.318952
4108.00           1.429780
4110.00           1.348743
4112.00           1.229273
4114.00           1.172333
4116.00           1.219918
4118.00           1.351489
4120.00           1.435169
4122.00           1.473094
4124.00           1.415952
4126.00           1.422459
4128.00           1.427441
4130.00           1.440659
4132.00           1.422358
4134.00           1.467909
4136.00           1.519561
4138.00           1.498514
4140.00           1.472281
4142.00           1.400802
4144.00           1.426526
4146.00           1.409648
4148.00           1.491091
4150.00           1.501259
4152.00           1.547827
4154.00           1.513562
4156.00           1.552301
4158.00           1.521899
4160.00           1.501259
4162.00           1.455403
4164.00           1.493735
4166.00           1.573958
4168.00           1.591955
4170.00           1.578432
4172.00           1.548335
4174.00           1.544472
4176.00           1.544268
4178.00           1.539083
4180.00           1.511325
4182.00           1.514375
4184.00           1.481127
4186.00           1.521289
4188.00           1.528203
4190.00           1.510207
4192.00           1.485194
4194.00           1.482347
4196.00           1.528203
4198.00           1.562265
4200.00           1.550166
4202.00           1.497700
4204.00           1.458453
4206.00           1.482245
4208.00           1.527492
4210.00           1.533796
4212.00           1.512545
4214.00           1.498717
4216.00           1.455301
4218.00           1.421646
4220.00           1.464350
4222.00           1.508986
4224.00           1.485397
4226.00           1.515392
4228.00           1.529220
4230.00           1.514070
4232.00           1.373959
4234.00           1.319359
4236.00           1.327188
4238.00           1.362876
4240.00           1.331051
4242.00           1.317223
4244.00           1.343456
4246.00           1.395820
4248.00           1.417070
4250.00           1.419511
4252.00           1.478178
4254.00           1.484584
4256.00           1.448488
4258.00           1.410055
4260.00           1.434965
4262.00           1.509698
4264.00           1.530847
4266.00           1.456521
4268.00           1.434254
4270.00           1.383008
4272.00           1.455098
4274.00           1.450725
4276.00           1.400090
4278.00           1.325358
4280.00           1.240762
4282.00           1.312241
4284.00           1.384330
4286.00           1.455504
4288.00           1.442795
4290.00           1.453979
4292.00           1.402835
4294.00           1.386160
4296.00           1.364707
4298.00           1.374366
4300.00           1.391549
4302.00           1.366333
4304.00           1.347828
4306.00           1.295465
4308.00           1.301260
4310.00           1.286619
4312.00           1.273807
4314.00           1.267198
4316.00           1.299837
4318.00           1.296888
4320.00           1.250625
4322.00           1.234865
4324.00           1.263029
4326.00           1.312140
4328.00           1.278179
4330.00           1.259979
4332.00           1.246456
4334.00           1.276756
4336.00           1.252862
4338.00           1.161962
4340.00           1.082146
4342.00           1.105125
4344.00           1.361148
4346.00           1.737353
4348.00           1.842894
4350.00           1.599276
4352.00           1.250727
4354.00           1.244219
4356.00           1.391041
4358.00           1.404767
4360.00           1.286110
4362.00           1.154947
4364.00           1.228358
4366.00           1.325764
4368.00           1.404666
4370.00           1.399073
4372.00           1.409343
4374.00           1.496480
4376.00           1.484686
4378.00           1.420832
4380.00           1.339694
4382.00           1.341321
4384.00           1.338982
4386.00           1.320477
4388.00           1.345896
4390.00           1.326069
4392.00           1.319155
4394.00           1.279196
4396.00           1.345083
4398.00           1.358403
4400.00           1.430085
4402.00           1.407309
4404.00           1.463537
4406.00           1.409648
4408.00           1.413613
4410.00           1.359928
4412.00           1.378026
4414.00           1.367655
4416.00           1.367452
4418.00           1.385957
4420.00           1.388194
4422.00           1.389821
4424.00           1.364198
4426.00           1.444015
4428.00           1.442896
4430.00           1.415138
4432.00           1.355454
4434.00           1.383924
4436.00           1.425306
4438.00           1.409851
4440.00           1.384737
4442.00           1.379043
4444.00           1.394193
4446.00           1.394701
4448.00           1.364198
4450.00           1.319155
4452.00           1.339694
4454.00           1.369790
4456.00           1.397548
4458.00           1.410156
4460.00           1.444421
4462.00           1.416867
4464.00           1.360741
4466.00           1.284788
4468.00           1.272485
4470.00           1.266385
4472.00           1.289872
4474.00           1.338169
4476.00           1.344676
4478.00           1.332068
4480.00           1.338779
4482.00           1.389211
4484.00           1.373552
4486.00           1.355759
4488.00           1.301362
4490.00           1.338169
4492.00           1.346913
4494.00           1.380670
4496.00           1.355454
4498.00           1.324951
4500.00           1.298210
4502.00           1.349455
4504.00           1.402429
4506.00           1.392769
4508.00           1.384839
4510.00           1.397955
4512.00           1.444828
4514.00           1.400700
4516.00           1.350167
4518.00           1.352810
4520.00           1.369892
4522.00           1.396023
4524.00           1.346201
4526.00           1.376603
4528.00           1.365927
4530.00           1.390939
4532.00           1.332068
4534.00           1.292922
4536.00           1.287330
4538.00           1.291499
4540.00           1.279196
4542.00           1.312648
4544.00           1.290381
4546.00           1.275739
4548.00           1.237509
4550.00           1.215445
4552.00           1.153218
4554.00           1.132273
4556.00           1.205684
4558.00           1.291092
4560.00           1.334509
4562.00           1.330340
4564.00           1.312343
4566.00           1.273401
4568.00           1.286415
4570.00           1.342236
4572.00           1.369790
4574.00           1.345998
4576.00           1.355962
4578.00           1.363080
4580.00           1.364503
4582.00           1.314071
4584.00           1.295871
4586.00           1.254590
4588.00           1.261809
4590.00           1.255200
4592.00           1.287635
4594.00           1.335017
4596.00           1.348947
4598.00           1.336339
4600.00           1.299430
4602.00           1.300650
4604.00           1.343659
4606.00           1.345185
4608.00           1.285297
4610.00           1.290991
4612.00           1.298718
4614.00           1.355759
4616.00           1.315088
4618.00           1.291194
4620.00           1.322307
4622.00           1.326883
4624.00           1.337965
4626.00           1.266385
4628.00           1.263640
4630.00           1.290787
4632.00           1.319867
4634.00           1.299735
4636.00           1.255505
4638.00           1.236288
4640.00           1.251337
4642.00           1.255607
4644.00           1.260589
4646.00           1.281840
4648.00           1.320782
4650.00           1.301972
4652.00           1.280721
4654.00           1.258454
4656.00           1.282856
4658.00           1.291804
4660.00           1.287330
4662.00           1.297091
4664.00           1.306039
4666.00           1.289059
4668.00           1.279603
4670.00           1.287127
4672.00           1.282552
4674.00           1.288754
4676.00           1.260793
4678.00           1.257437
4680.00           1.231103
4682.00           1.211886
4684.00           1.232628
4686.00           1.248693
4688.00           1.273197
4690.00           1.297600
4692.00           1.306446
4694.00           1.304107
4696.00           1.290991
4698.00           1.308581
4700.00           1.333593
4702.00           1.347422
4704.00           1.370197
4706.00           1.341931
4708.00           1.301260
4710.00           1.245846
4712.00           1.264351
4714.00           1.304107
4716.00           1.337864
4718.00           1.326883
4720.00           1.301565
4722.00           1.276044
4724.00           1.286822
4726.00           1.280010
4728.00           1.286212
4730.00           1.307056
4732.00           1.319867
4734.00           1.321900
4736.00           1.273197
4738.00           1.266080
4740.00           1.210666
4742.00           1.164199
4744.00           1.149558
4746.00           1.218292
4748.00           1.273095
4750.00           1.285398
4752.00           1.238119
4754.00           1.223782
4756.00           1.234051
4758.00           1.233543
4760.00           1.219817
4762.00           1.195007
4764.00           1.212496
4766.00           1.223782
4768.00           1.217071
4770.00           1.205379
4772.00           1.221647
4774.00           1.223782
4776.00           1.198363
4778.00           1.180061
4780.00           1.207514
4782.00           1.261504
4784.00           1.294346
4786.00           1.265876
4788.00           1.246049
4790.00           1.211886
4792.00           1.222765
4794.00           1.163996
4796.00           1.145796
4798.00           1.156167
4800.00           1.218800
4802.00           1.237915
4804.00           1.216156
4806.00           1.215445
4808.00           1.220630
4810.00           1.197651
4812.00           1.134306
4814.00           1.135628
4816.00           1.150371
4818.00           1.215953
4820.00           1.236187
4822.00           1.246558
4824.00           1.219613
4826.00           1.188297
4828.00           1.208632
4830.00           1.216461
4832.00           1.216563
4834.00           1.181688
4836.00           1.156268
4838.00           1.169995
4840.00           1.136441
4842.00           1.125562
4844.00           1.096076
4846.00           1.114377
4848.00           1.147524
4850.00           1.127290
4852.00           1.124749
4854.00           1.095974
4856.00           1.084993
4858.00           1.065674
4860.00           1.006498
4862.00           0.951897
4864.00           1.146508
4866.00           1.878786
4868.00           2.668512
4870.00           2.726570
4872.00           2.027235
4874.00           1.267910
4876.00           0.990738
4878.00           0.969386
4880.00           0.992365
4882.00           0.993280
4884.00           1.019106
4886.00           1.039340
4888.00           1.045237
4890.00           1.022360
4892.00           1.010972
4894.00           1.054998
4896.00           1.113056
4898.00           1.106345
4900.00           1.093737
4902.00           1.128612
4904.00           1.161861
4906.00           1.173452
4908.00           1.125562
4910.00           1.110107
4912.00           1.113157
4914.00           1.155760
4916.00           1.190940
4918.00           1.177824
4920.00           1.125562
4922.00           1.111124
4924.00           1.117326
4926.00           1.099533
4928.00           1.080519
4930.00           1.099533
4932.00           1.117021
4934.00           1.118546
4936.00           1.097499
4938.00           1.127392
4940.00           1.110615
4942.00           1.097499
4944.00           1.083468
4946.00           1.110107
4948.00           1.119563
4950.00           1.099024
4952.00           1.067098
4954.00           1.085095
4956.00           1.102990
4958.00           1.107972
4960.00           1.081943
4962.00           1.399785
4964.00           2.192460
4966.00           2.903488
4968.00           2.838821
4970.00           2.053467
4972.00           1.352200
4974.00           1.091500
4976.00           1.084790
4978.00           1.110615
4980.00           1.156574
4982.00           1.182400
4984.00           1.162674
4986.00           1.121597
4988.00           1.104515
4990.00           1.099126
4992.00           1.091094
4994.00           1.120478
4996.00           1.121495
4998.00           1.113259
5000.00           1.105532
5002.00           1.102888
5004.00           1.132781
5006.00           1.105532
5008.00           1.165623
5010.00           2.122506
5012.00           4.432000
5014.00           6.440123
5016.00           6.144446
5018.00           3.848272
5020.00           1.776499
5022.00           1.124545
5024.00           1.114479
5026.00           1.104311
5028.00           1.082756
5030.00           1.082553
5032.00           1.100753
5034.00           1.105735
5036.00           1.106955
5038.00           1.117835
5040.00           1.128816
5042.00           1.102685
5044.00           1.074723
5046.00           1.054185
5048.00           1.081332
5050.00           1.067708
5052.00           1.036595
5054.00           0.997957
5056.00           1.004363
5058.00           0.998466
5060.00           1.031206
5062.00           1.065166
5064.00           1.106650
5066.00           1.077062
5068.00           1.051744
5070.00           1.051236
5072.00           1.059472
5074.00           1.043509
5076.00           1.009752
5078.00           1.033341
5080.00           1.088958
5082.00           1.144169
5084.00           1.125664
5086.00           1.056117
5088.00           1.030087
5090.00           1.041068
5092.00           1.058557
5094.00           1.041882
5096.00           1.021038
5098.00           1.032833
5100.00           1.040255
5102.00           1.013819
5104.00           0.991653
5106.00           0.991653
5108.00           1.035171
5110.00           1.061505
5112.00           1.053676
5114.00           1.038120
5116.00           1.033849
5118.00           1.069030
5120.00           1.094347
5122.00           1.095771
5124.00           1.100753
