#Wavelength     Normalized Flux
#[Angstrom]       [Counts]
3650.00           0.345209
3652.00           0.326113
3654.00           0.311704
3656.00           0.303405
3658.00           0.301606
3660.00           0.288313
3662.00           0.290600
3664.00           0.308901
3666.00           0.352309
3668.00           0.383707
3670.00           0.385101
3672.00           0.373301
3674.00           0.366201
3676.00           0.358111
3678.00           0.349700
3680.00           0.349407
3682.00           0.372101
3684.00           0.378601
3686.00           0.350105
3688.00           0.328010
3690.00           0.326113
3692.00           0.335208
3694.00           0.347803
3696.00           0.345306
3698.00           0.341205
3700.00           0.341401
3702.00           0.360008
3704.00           0.374710
3706.00           0.374807
3708.00           0.375505
3710.00           0.369005
3712.00           0.371404
3714.00           0.354010
3716.00           0.345613
3718.00           0.327606
3720.00           0.305902
3722.00           0.303907
3724.00           0.336310
3726.00           0.364011
3728.00           0.363607
3730.00           0.339504
3732.00           0.318707
3734.00           0.315903
3736.00           0.318204
3738.00           0.323812
3740.00           0.336003
3742.00           0.335612
3744.00           0.313811
3746.00           0.280013
3748.00           0.265911
3750.00           0.288606
3752.00           0.299806
3754.00           0.299206
3756.00           0.273709
3758.00           0.260709
3760.00           0.256412
3762.00           0.262006
3764.00           0.279511
3766.00           0.298314
3768.00           0.318609
3770.00           0.341010
3772.00           0.334008
3774.00           0.338904
3776.00           0.340801
3778.00           0.357414
3780.00           0.361807
3782.00           0.359311
3784.00           0.371906
3786.00           0.388310
3788.00           0.401812
3790.00           0.399608
3792.00           0.396107
3794.00           0.402411
3796.00           0.399008
3798.00           0.397111
3800.00           0.375700
3802.00           0.344107
3804.00           0.327912
3806.00           0.319306
3808.00           0.317409
3810.00           0.302303
3812.00           0.295608
3814.00           0.308901
3816.00           0.319502
3818.00           0.320004
3820.00           0.321008
3822.00           0.345502
3824.00           0.378113
3826.00           0.383414
3828.00           0.368112
3830.00           0.323812
3832.00           0.304200
3834.00           0.279414
3836.00           0.257403
3838.00           0.236606
3840.00           0.218710
3842.00           0.214204
3844.00           0.204608
3846.00           0.198108
3848.00           0.203813
3850.00           0.217510
3852.00           0.232003
3854.00           0.243608
3856.00           0.258602
3858.00           0.280404
3860.00           0.290600
3862.00           0.288410
3864.00           0.285411
3866.00           0.283305
3868.00           0.277307
3870.00           0.258407
3872.00           0.245100
3874.00           0.243901
3876.00           0.250303
3878.00           0.253204
3880.00           0.283807
3882.00           0.334705
3884.00           0.378211
3886.00           0.361905
3888.00           0.314410
3890.00           0.280808
3892.00           0.273109
3894.00           0.264001
3896.00           0.275913
3898.00           0.290307
3900.00           0.307910
3902.00           0.328303
3904.00           0.359506
3906.00           0.393205
3908.00           0.424101
3910.00           0.438803
3912.00           0.445512
3914.00           0.416402
3916.00           0.401407
3918.00           0.389509
3920.00           0.402914
3922.00           0.389704
3924.00           0.388603
3926.00           0.377904
3928.00           0.378113
3930.00           0.383609
3932.00           0.383609
3934.00           0.379703
3936.00           0.364304
3938.00           0.333813
3940.00           0.297602
3942.00           0.246914
3944.00           0.215209
3946.00           0.190910
3948.00           0.182513
3950.00           0.188511
3952.00           0.219812
3954.00           0.272314
3956.00           0.315010
3958.00           0.339406
3960.00           0.351806
3962.00           0.370204
3964.00           0.388100
3966.00           0.404713
3968.00           0.419401
3970.00           0.428202
3972.00           0.410306
3974.00           0.386413
3976.00           0.332613
3978.00           0.283208
3980.00           0.232812
3982.00           0.209002
3984.00           0.211707
3986.00           0.238907
3988.00           0.296208
3990.00           0.356409
3992.00           0.412301
3994.00           0.450506
3996.00           0.481304
3998.00           0.493914
4000.00           0.519202
4002.00           0.539414
4004.00           0.568803
4006.00           0.566404
4008.00           0.559207
4010.00           0.555301
4012.00           0.561006
4014.00           0.582013
4016.00           0.599309
4018.00           0.606311
4020.00           0.593408
4022.00           0.578902
4024.00           0.587201
4026.00           0.605404
4028.00           0.605711
4030.00           0.608905
4032.00           0.592906
4034.00           0.588903
4036.00           0.576810
4038.00           0.601903
4040.00           0.644892
4042.00           0.676597
4044.00           0.667391
4046.00           0.627206
4048.00           0.590800
4050.00           0.576001
4052.00           0.583100
4054.00           0.606604
4056.00           0.613410
4058.00           0.587410
4060.00           0.545412
4062.00           0.537907
4064.00           0.572207
4066.00           0.596310
4068.00           0.622700
4070.00           0.613006
4072.00           0.595808
4074.00           0.576503
4076.00           0.558509
4078.00           0.565009
4080.00           0.557812
4082.00           0.561006
4084.00           0.565107
4086.00           0.572011
4088.00           0.582403
4090.00           0.577800
4092.00           0.576210
4094.00           0.570700
4096.00           0.581301
4098.00           0.598806
4100.00           0.635700
4102.00           0.663095
4104.00           0.679889
4106.00           0.667796
4108.00           0.658590
4110.00           0.629605
4112.00           0.594706
4114.00           0.564103
4116.00           0.549108
4118.00           0.549010
4120.00           0.549512
4122.00           0.557812
4124.00           0.578707
4126.00           0.593604
4128.00           0.600508
4130.00           0.609812
4132.00           0.632213
4134.00           0.638002
4136.00           0.625309
4138.00           0.618306
4140.00           0.627108
4142.00           0.641991
4144.00           0.632213
4146.00           0.612406
4148.00           0.595403
4150.00           0.592809
4152.00           0.606213
4154.00           0.605502
4156.00           0.601610
4158.00           0.590410
4160.00           0.574704
4162.00           0.580604
4164.00           0.584914
4166.00           0.604902
4168.00           0.603200
4170.00           0.599113
4172.00           0.599908
4174.00           0.591902
4176.00           0.604414
4178.00           0.626703
4180.00           0.651992
4182.00           0.651588
4184.00           0.630205
4186.00           0.616200
4188.00           0.599811
4190.00           0.585402
4192.00           0.568008
4194.00           0.568413
4196.00           0.581608
4198.00           0.593701
4200.00           0.611611
4202.00           0.625908
4204.00           0.638908
4206.00           0.642186
4208.00           0.637514
4210.00           0.633301
4212.00           0.616410
4214.00           0.591804
4216.00           0.580311
4218.00           0.583505
4220.00           0.616912
4222.00           0.641196
4224.00           0.661895
4226.00           0.661393
4228.00           0.653889
4230.00           0.644697
4232.00           0.648087
4234.00           0.651992
4236.00           0.644390
4238.00           0.616005
4240.00           0.589405
4242.00           0.576810
4244.00           0.569501
4246.00           0.585611
4248.00           0.610007
4250.00           0.632408
4252.00           0.632101
4254.00           0.632101
4256.00           0.637904
4258.00           0.664588
4260.00           0.687491
4262.00           0.693391
4264.00           0.663988
4266.00           0.622603
4268.00           0.607008
4270.00           0.609700
4272.00           0.637304
4274.00           0.643497
4276.00           0.660989
4278.00           0.654391
4280.00           0.670697
4282.00           0.676695
4284.00           0.667586
4286.00           0.639508
4288.00           0.601401
4290.00           0.593311
4292.00           0.608012
4294.00           0.632311
4296.00           0.647696
4298.00           0.640791
4300.00           0.628112
4302.00           0.615810
4304.00           0.603200
4306.00           0.595110
4308.00           0.575903
4310.00           0.592711
4312.00           0.591609
4314.00           0.590200
4316.00           0.533109
4318.00           0.490008
4320.00           0.453407
4322.00           0.445010
4324.00           0.439403
4326.00           0.450213
4328.00           0.502813
4330.00           0.582013
4332.00           0.677197
4334.00           0.723395
4336.00           0.722097
4338.00           0.692596
4340.00           0.643888
4342.00           0.627708
4344.00           0.629200
4346.00           0.665996
4348.00           0.684994
4350.00           0.682595
4352.00           0.697297
4354.00           0.724789
4356.00           0.720688
4358.00           0.682693
4360.00           0.659189
4362.00           0.685692
4364.00           0.720089
4366.00           0.735892
4368.00           0.729699
4370.00           0.720396
4372.00           0.713491
4374.00           0.720995
4376.00           0.743787
4378.00           0.768992
4380.00           0.777598
4382.00           0.779188
4384.00           0.760595
4386.00           0.744792
4388.00           0.720688
4390.00           0.698399
4392.00           0.691592
4394.00           0.687393
4396.00           0.681186
4398.00           0.659399
4400.00           0.630302
4402.00           0.608110
4404.00           0.610607
4406.00           0.640192
4408.00           0.690894
4410.00           0.717090
4412.00           0.725487
4414.00           0.729392
4416.00           0.735097
4418.00           0.729490
4420.00           0.706991
4422.00           0.699291
4424.00           0.708191
4426.00           0.725291
4428.00           0.751389
4430.00           0.774488
4432.00           0.798591
4434.00           0.796791
4436.00           0.797698
4438.00           0.797196
4440.00           0.793095
4442.00           0.784098
4444.00           0.771391
4446.00           0.772396
4448.00           0.776999
4450.00           0.783791
4452.00           0.783192
4454.00           0.787892
4456.00           0.795494
4458.00           0.813600
4460.00           0.815092
4462.00           0.820797
4464.00           0.827897
4466.00           0.843993
4468.00           0.842891
4470.00           0.822289
4472.00           0.784098
4474.00           0.754500
4476.00           0.743899
4478.00           0.758587
4480.00           0.777989
4482.00           0.791087
4484.00           0.797391
4486.00           0.810391
4488.00           0.821690
4490.00           0.839195
4492.00           0.862587
4494.00           0.892687
4496.00           0.893497
4498.00           0.883495
4500.00           0.873494
4502.00           0.880594
4504.00           0.878697
4506.00           0.869087
4508.00           0.855598
4510.00           0.843491
4512.00           0.849587
4514.00           0.862391
4516.00           0.878195
4518.00           0.899188
4520.00           0.922593
4522.00           0.941995
4524.00           0.941591
4526.00           0.945594
4528.00           0.944297
4530.00           0.926596
4532.00           0.915396
4534.00           0.907989
4536.00           0.907989
4538.00           0.893497
4540.00           0.897193
4542.00           0.899090
4544.00           0.879799
4546.00           0.835694
4548.00           0.796791
4550.00           0.788799
4552.00           0.804896
4554.00           0.833490
4556.00           0.856798
4558.00           0.877400
4560.00           0.887387
4562.00           0.885295
4564.00           0.868891
4566.00           0.861792
4568.00           0.870495
4570.00           0.878990
4572.00           0.885100
4574.00           0.891697
4576.00           0.916498
4578.00           0.928689
4580.00           0.935691
4582.00           0.923695
4584.00           0.929693
4586.00           0.933891
4588.00           0.932999
4590.00           0.917390
4592.00           0.899996
4594.00           0.896091
4596.00           0.903288
4598.00           0.902689
4600.00           0.884695
4602.00           0.875196
4604.00           0.882589
4606.00           0.906497
4608.00           0.914587
4610.00           0.910193
4612.00           0.908296
4614.00           0.906399
4616.00           0.901796
4618.00           0.896091
4620.00           0.894696
4622.00           0.895491
4624.00           0.906287
4626.00           0.922998
4628.00           0.946389
4630.00           0.961189
4632.00           0.967298
4634.00           0.976197
4636.00           0.976699
4638.00           0.976100
4640.00           0.975193
4642.00           0.974788
4644.00           0.971999
4646.00           0.966294
4648.00           0.964187
4650.00           0.961788
4652.00           0.954298
4654.00           0.942595
4656.00           0.933598
4658.00           0.927698
4660.00           0.914098
4662.00           0.903400
4664.00           0.879492
4666.00           0.886397
4668.00           0.887094
4670.00           0.899090
4672.00           0.900889
4674.00           0.910988
4676.00           0.917488
4678.00           0.931395
4680.00           0.921798
4682.00           0.913192
4684.00           0.875893
4686.00           0.845988
4688.00           0.838191
4690.00           0.846490
4692.00           0.873592
4694.00           0.876493
4696.00           0.874094
4698.00           0.869993
4700.00           0.874499
4702.00           0.886299
4704.00           0.894891
4706.00           0.896900
4708.00           0.900596
4710.00           0.902689
4712.00           0.912690
4714.00           0.907292
4716.00           0.888391
4718.00           0.870900
4720.00           0.850688
4722.00           0.851400
4724.00           0.854496
4726.00           0.857691
4728.00           0.860397
4730.00           0.875893
4732.00           0.905395
4734.00           0.923193
4736.00           0.934087
4738.00           0.943990
4740.00           0.959989
4742.00           0.954186
4744.00           0.945190
4746.00           0.926596
4748.00           0.912899
4750.00           0.903888
4752.00           0.899494
4754.00           0.908087
4756.00           0.914698
4758.00           0.933598
4760.00           0.946096
4762.00           0.964299
4764.00           0.971594
4766.00           0.976392
4768.00           0.976100
4770.00           0.974495
4772.00           0.969293
4774.00           0.954786
4776.00           0.936695
4778.00           0.923793
4780.00           0.916191
4782.00           0.914391
4784.00           0.913792
4786.00           0.913987
4788.00           0.932287
4790.00           0.946487
4792.00           0.955400
4794.00           0.954186
4796.00           0.958190
4798.00           0.964397
4800.00           0.956000
4802.00           0.935189
4804.00           0.925299
4806.00           0.919497
4808.00           0.924588
4810.00           0.930195
4812.00           0.947896
4814.00           0.968888
4816.00           0.980186
4818.00           0.982697
4820.00           0.975500
4822.00           0.975500
4824.00           0.961286
4826.00           0.951997
4828.00           0.939499
4830.00           0.948691
4832.00           0.962597
4834.00           0.976490
4836.00           0.981093
4838.00           0.978192
4840.00           0.974398
4842.00           0.965387
4844.00           0.955093
4846.00           0.947686
4848.00           0.954591
4850.00           0.951090
4852.00           0.945287
4854.00           0.928898
4856.00           0.949695
4858.00           0.953098
4860.00           0.955288
4862.00           0.934798
4864.00           0.932594
4866.00           0.936890
4868.00           0.941298
4870.00           0.930990
4872.00           0.916693
4874.00           0.895491
4876.00           0.873090
4878.00           0.848387
4880.00           0.826097
4882.00           0.817686
4884.00           0.817087
4886.00           0.830589
4888.00           0.858988
4890.00           0.880092
4892.00           0.889089
4894.00           0.888698
4896.00           0.894696
4898.00           0.914098
4900.00           0.929498
4902.00           0.925188
4904.00           0.911588
4906.00           0.886592
4908.00           0.882993
4910.00           0.886188
4912.00           0.909495
4914.00           0.931799
4916.00           0.950392
4918.00           0.960798
4920.00           0.965387
4922.00           0.957297
4924.00           0.937490
4926.00           0.924295
4928.00           0.926987
4930.00           0.932789
4932.00           0.925188
4934.00           0.912494
4936.00           0.907487
4938.00           0.902187
4940.00           0.886188
4942.00           0.876186
4944.00           0.893287
4946.00           0.921491
4948.00           0.946487
4950.00           0.955693
4952.00           0.946389
4954.00           0.931297
4956.00           0.914098
4958.00           0.909900
4960.00           0.912899
4962.00           0.928995
4964.00           0.955888
4966.00           0.989588
4968.00           0.988597
4970.00           0.989100
4972.00           0.970492
4974.00           0.957088
4976.00           0.930390
4978.00           0.907989
4980.00           0.901587
4982.00           0.900792
4984.00           0.914098
4986.00           0.934296
4988.00           0.946389
4990.00           0.951899
4992.00           0.945887
4994.00           0.944994
4996.00           0.932190
4998.00           0.920598
5000.00           0.897695
5002.00           0.882394
5004.00           0.865000
5006.00           0.870593
5008.00           0.880887
5010.00           0.891795
5012.00           0.895993
5014.00           0.896189
5016.00           0.901294
5018.00           0.897095
5020.00           0.886690
5022.00           0.872699
5024.00           0.853590
5026.00           0.840688
5028.00           0.831998
5030.00           0.830686
5032.00           0.839097
5034.00           0.837396
5036.00           0.838288
5038.00           0.832597
5040.00           0.831691
5042.00           0.841092
5044.00           0.845597
5046.00           0.854399
5048.00           0.865990
5050.00           0.858597
5052.00           0.863298
5054.00           0.861499
5056.00           0.866897
5058.00           0.851888
5060.00           0.823294
5062.00           0.811995
5064.00           0.814492
5066.00           0.838400
5068.00           0.857788
5070.00           0.870900
5072.00           0.882394
5074.00           0.884695
5076.00           0.893399
5078.00           0.898992
5080.00           0.913987
5082.00           0.918799
5084.00           0.908589
5086.00           0.880999
5088.00           0.869087
5090.00           0.855891
5092.00           0.855989
5094.00           0.839488
5096.00           0.830686
5098.00           0.820295
5100.00           0.817296
5102.00           0.823294
5104.00           0.828399
5106.00           0.834997
5108.00           0.843589
5110.00           0.860690
5112.00           0.873090
5114.00           0.872392
5116.00           0.859392
5118.00           0.854692
5120.00           0.843896
5122.00           0.855194
5124.00           0.856491
